# Franck condon factor of H2 d3 - X1
# From INDC(NDS)-457 U. Fantz 2004, page 71, table 5.31
# https://inis.iaea.org/collection/NCLCollectionStore/_Public/37/088/37088524.pdf\
# https://doi.org/10.1016/j.adt.2006.05.001 newer source, in a paper
# here columns represent v', rows v'', or [d][X]
# fcf[v][vv] 0<=v<=14(max) 0<=vv<=14

0.10008	    0.17082	0.1803	    0.15397	0.11757	   0.084353	0.058498    0.039897	0.027047    0.018355	0.0125420    	0.0086022	0.0059239	0.0040531	0.0026995
0.29326	    0.1628	0.028311    0.0007751	0.024203   0.050175	0.062921    0.063471	0.056961    0.047721	0.0383820	0.0299330	0.0228170	0.0169100	0.0119720
0.33792	    0.0003031   0.084115    0.10927	0.057628   0.013478	3.16e-05    0.0058005	0.016689    0.025235	0.0294630	0.0297670	0.0273890	0.0233350	0.0182970
0.19682	    0.16243	0.10563	    0.0003133	0.03696	   0.068929	0.057338    0.030216	0.0098429   0.0010694	0.0003759	0.0031678	0.0063041	0.0082278	0.0084088
0.06137	    0.29633	0.0098181   0.12194	0.054765   0.0008647	0.015569    0.039699	0.044516    0.034587	0.0210890	0.0103270	0.0039250	0.0009929	0.0000887
0.0098253   0.16647	0.23866	    0.024083	0.043626   0.083283	0.036289    0.0023518	0.0044617   0.018505	0.0271670	0.0273480	0.0224070	0.0159800	0.0102090
0.0006765   0.037857	0.26243	    0.12233	0.089718   0.0005738	0.047402    0.058114	0.028512    0.0051232	0.0001626	0.0050746	0.0107890	0.0133810	0.0125740
1.06e-05    0.0030336	0.083458    0.31715	0.036187   0.11426	0.016456    0.0081116	0.038801    0.041557	0.0246700	0.0088203	0.0013125	0.0000472	0.0010905
0           3.2e-05	0.13866	    0.33368	0.33368	   0.0028025	0.092391    0.046894	0.0011962   0.010628	0.0275720	0.0293200	0.0209890	0.0115490	0.0051280
0           1.3e-06	2.16e-05    0.011422	0.19328	   0.33699	0.0014247   0.055887	0.059046    0.014886	0.0000273	0.0081309 	0.0166790	0.0180650	0.0143730
0	    0		0.0000092   0.0000161	0.0118140  0.2363200	0.3581100   0.0047378   0.0273030   0.0519420	0.0266500	0.0044993	0.0001651	0.0038949	0.0069437
0	    0		0.0000001   0.0000241	0.0005498  0.0054300	0.2486300   0.4269300	0.0006311   0.0103360	0.0382150	0.0276200	0.0106910	0.0017616	0.0000033
0	    0		0	    0.0000035	0.0000036  0.0023585	0.0003237   0.1886000	0.5492300   0.0147440	0.0006942	0.0299320	0.0200140	0.0114470	0.0042581
0	    0		0	    0.0000004	0.0000115  0.0001875	0.0023512   0.0248600	0.0411020   0.5709800	0.1487300	0.0207600	0.0493540	0.0055183	0.0091549
0	    0		0	    0		0.0000037  0.0000090	0.0008914   0.0010645	0.0351340   0.0400550	0.1306600	0.2457400	0.1740200 	0.2273400 	0.0463060 

